File: Ellipsometry/Intensity Comparisons/CSVnewCopper Palik.txt
Angstroms, e1, e2, n, k, Absorption
2500, -9.251114e-01, 5.233084e+00, 1.481404e+00, 1.766258e+00, 4.373231e-02
2600, -5.673082e-01, 5.208952e+00, 1.528471e+00, 1.703975e+00, 4.189625e-02
2700, -4.781340e-01, 5.069093e+00, 1.518792e+00, 1.668791e+00, 3.931381e-02
2800, -4.708171e-01, 4.914946e+00, 1.494428e+00, 1.644424e+00, 3.680461e-02
2900, -5.941523e-01, 4.746698e+00, 1.447340e+00, 1.639801e+00, 3.436226e-02
3000, -8.330695e-01, 4.641927e+00, 1.393381e+00, 1.665707e+00, 3.251455e-02
3100, -1.164737e+00, 4.611071e+00, 1.339993e+00, 1.720558e+00, 3.127642e-02
3200, -1.358456e+00, 4.758144e+00, 1.339741e+00, 1.775771e+00, 3.126562e-02
3300, -1.541887e+00, 4.860735e+00, 1.333705e+00, 1.822267e+00, 3.097646e-02
3400, -1.707799e+00, 4.887586e+00, 1.317111e+00, 1.855419e+00, 3.024286e-02
3500, -1.894131e+00, 4.914259e+00, 1.298562e+00, 1.892193e+00, 2.954961e-02
3600, -2.096507e+00, 4.940794e+00, 1.278806e+00, 1.931800e+00, 2.889362e-02
3700, -2.497993e+00, 5.015195e+00, 1.245969e+00, 2.012568e+00, 2.854120e-02
3800, -3.069089e+00, 5.130370e+00, 1.206069e+00, 2.126897e+00, 2.842994e-02
3900, -3.491700e+00, 5.215600e+00, 1.180000e+00, 2.210000e+00, 2.816498e-02
4000, -3.491700e+00, 5.215600e+00, 1.180000e+00, 2.210000e+00, 2.747062e-02
4100, -3.491700e+00, 5.215600e+00, 1.180000e+00, 2.210000e+00, 2.680967e-02
4200, -3.652727e+00, 5.285280e+00, 1.177276e+00, 2.244706e+00, 2.652485e-02
4300, -3.893066e+00, 5.389280e+00, 1.173726e+00, 2.295800e+00, 2.641922e-02
4400, -4.133405e+00, 5.493279e+00, 1.170741e+00, 2.346069e+00, 2.631838e-02
4500, -4.354610e+00, 5.570597e+00, 1.165342e+00, 2.390112e+00, 2.609866e-02
4600, -4.568375e+00, 5.637538e+00, 1.159264e+00, 2.431516e+00, 2.584150e-02
4700, -4.782140e+00, 5.704480e+00, 1.153613e+00, 2.472441e+00, 2.559522e-02
4800, -4.973980e+00, 5.755950e+00, 1.147464e+00, 2.508118e+00, 2.529203e-02
4900, -5.119231e+00, 5.774543e+00, 1.139683e+00, 2.533399e+00, 2.486136e-02
5000, -5.264482e+00, 5.793136e+00, 1.132114e+00, 2.558547e+00, 2.444775e-02
5100, -5.409733e+00, 5.811729e+00, 1.124751e+00, 2.583563e+00, 2.405018e-02
5200, -5.523950e+00, 5.757700e+00, 1.107947e+00, 2.598364e+00, 2.337643e-02
5300, -5.577923e+00, 5.562700e+00, 1.072309e+00, 2.593795e+00, 2.217220e-02
5400, -5.644916e+00, 5.342628e+00, 1.031356e+00, 2.590099e+00, 2.091406e-02
5500, -5.829090e+00, 4.896914e+00, 9.444387e-01, 2.592500e+00, 1.884061e-02
5600, -6.013263e+00, 4.451200e+00, 8.568007e-01, 2.597570e+00, 1.683704e-02
5700, -6.464184e+00, 3.892867e+00, 7.354188e-01, 2.646701e+00, 1.448402e-02
5800, -7.058739e+00, 3.273893e+00, 6.009470e-01, 2.723945e+00, 1.198614e-02
5900, -7.653293e+00, 2.654919e+00, 4.729778e-01, 2.806600e+00, 9.566923e-03
6000, -8.570865e+00, 2.347822e+00, 3.973374e-01, 2.954444e+00, 8.324513e-03
6100, -9.501895e+00, 2.053721e+00, 3.312177e-01, 3.100258e+00, 7.166539e-03
6200, -1.043282e+01, 1.761972e+00, 2.717916e-01, 3.241402e+00, 6.052690e-03
6300, -1.135290e+01, 1.703137e+00, 2.520314e-01, 3.378820e+00, 5.758567e-03
6400, -1.227299e+01, 1.644303e+00, 2.341578e-01, 3.511100e+00, 5.473554e-03
6500, -1.319308e+01, 1.585469e+00, 2.178586e-01, 3.638756e+00, 5.197231e-03
6600, -1.402915e+01, 1.608489e+00, 2.143691e-01, 3.751680e+00, 5.192815e-03
6700, -1.483721e+01, 1.658794e+00, 2.149863e-01, 3.857905e+00, 5.275072e-03
6800, -1.568129e+01, 1.695862e+00, 2.138147e-01, 3.965729e+00, 5.313540e-03
6900, -1.651151e+01, 1.734067e+00, 2.130817e-01, 4.069019e+00, 5.354392e-03
7000, -1.728341e+01, 1.777900e+00, 2.135455e-01, 4.162813e+00, 5.411160e-03
7100, -1.805761e+01, 1.827050e+00, 2.147023e-01, 4.254845e+00, 5.482235e-03
7200, -1.884391e+01, 1.904112e+00, 2.190407e-01, 4.346480e+00, 5.633685e-03
7300, -1.963296e+01, 1.981249e+00, 2.232880e-01, 4.436532e+00, 5.781182e-03
7400, -2.045856e+01, 2.059379e+00, 2.273635e-01, 4.528825e+00, 5.927519e-03
7500, -2.128416e+01, 2.137508e+00, 2.313684e-01, 4.619274e+00, 6.069933e-03
7600, -2.210976e+01, 2.215638e+00, 2.353063e-01, 4.707986e+00, 6.208580e-03
7700, -2.293536e+01, 2.293768e+00, 2.391804e-01, 4.795057e+00, 6.343608e-03
7800, -2.376096e+01, 2.371897e+00, 2.429936e-01, 4.880575e+00, 6.475155e-03
7900, -2.458656e+01, 2.450027e+00, 2.467487e-01, 4.964620e+00, 6.603355e-03
8000, -2.541216e+01, 2.528156e+00, 2.504481e-01, 5.047265e+00, 6.728335e-03
8100, -2.623776e+01, 2.606286e+00, 2.540944e-01, 5.128579e+00, 6.850213e-03
8200, -2.706336e+01, 2.684416e+00, 2.576895e-01, 5.208624e+00, 6.969104e-03
8300, -2.797060e+01, 2.774061e+00, 2.619407e-01, 5.295207e+00, 7.114546e-03
8400, -2.902947e+01, 2.885093e+00, 2.674090e-01, 5.394532e+00, 7.310498e-03
8500, -3.008834e+01, 2.996124e+00, 2.727686e-01, 5.492062e+00, 7.501802e-03
8600, -3.114720e+01, 3.107156e+00, 2.780259e-01, 5.587889e+00, 7.688621e-03
8700, -3.220607e+01, 3.218188e+00, 2.831865e-01, 5.682100e+00, 7.871112e-03
8800, -3.326494e+01, 3.329220e+00, 2.882553e-01, 5.774775e+00, 8.049423e-03
8900, -3.432380e+01, 3.440251e+00, 2.932373e-01, 5.865986e+00, 8.223695e-03
9000, -3.538267e+01, 3.551283e+00, 2.981365e-01, 5.955800e+00, 8.394066e-03
9100, -3.644153e+01, 3.662314e+00, 3.029571e-01, 6.044280e+00, 8.560664e-03
9200, -3.750040e+01, 3.773346e+00, 3.077026e-01, 6.131483e+00, 8.723613e-03
9300, -3.855927e+01, 3.884378e+00, 3.123764e-01, 6.217463e+00, 8.883032e-03
9400, -3.961813e+01, 3.995410e+00, 3.169818e-01, 6.302270e+00, 9.039034e-03
9500, -4.067700e+01, 4.106441e+00, 3.215215e-01, 6.385951e+00, 9.191728e-03
9600, -4.173586e+01, 4.217473e+00, 3.259983e-01, 6.468550e+00, 9.341218e-03
9700, -4.279473e+01, 4.328505e+00, 3.304148e-01, 6.550107e+00, 9.487604e-03
9800, -4.385359e+01, 4.439536e+00, 3.347733e-01, 6.630661e+00, 9.630981e-03
9900, -4.491246e+01, 4.550568e+00, 3.390760e-01, 6.710248e+00, 9.771442e-03
10000, -4.597133e+01, 4.661600e+00, 3.433250e-01, 6.788903e+00, 9.909075e-03