File: Ellipsometry/Intensity Comparisons/HfO2 m_1.txt
Hafnium dioxide, from m_1.dat (250nm to 1000nm)
ANGSTROMS
E1E2
2500	5.22828	0.156445
2600	5.37688	0.170329
2700	5.25397	0.154196
2800	5.14333	0.100767
2900	4.98741	0.0654804
3000	4.89356	0.0729407
3100	4.8208	0.0757473
3200	4.78438	0.0808944
3300	4.76521	0.072624
3400	4.74526	0.056682
3500	4.72224	0.0488904
3600	4.72744	0.0507177
3700	4.71845	0.0000000
3800	4.66474	0.0000000
3900	4.6139	0.0000000
4000	4.57789	0.0000000
4100	4.54926	0.0000000
4200	4.50586	0.0000000
4300	4.47915	0.0000000
4400	4.45632	0.0000000
4500	4.43439	0.0000000
4600	4.41252	0.0000000
4700	4.39154	0.0000000
4800	4.37228	0.0000000
4900	4.35515	0.0000000
5000	4.33806	0.0000000
5100	4.32058	0.0000000
5200	4.30604	0.0000000
5300	4.29236	0.0000000
5400	4.28159	0.0000000
5500	4.2667	0.0000000
5600	4.25638	0.0000000
5700	4.24607	0.0000000
5800	4.23578	0.0000000
5900	4.22303	0.0000000
6000	4.21399	0.0000000
6100	4.20824	0.0000000
6200	4.19881	0.0000000
6300	4.19185	0.0000000
6400	4.18571	0.0000000
6500	4.18366	0.0000000
6600	4.17303	0.0000000
6700	4.16854	0.0000000
6800	4.16568	0.0000000
6900	4.16038	0.0000000
7000	4.16201	0.0000000
7100	4.15997	0.0000000
7200	4.14407	0.0000000
7300	4.14367	0.0000000
7400	4.14815	0.0000000
7500	4.13756	0.0000000
7600	4.13716	0.0000000
7700	4.1396	0.0000000
7800	4.11968	0.0000000
7900	4.14204	0.0000000
8000	4.12984	0.0000000
8100	4.13268	0.0000000
8200	4.12862	0.0000000
8300	4.12334	0.0000000
8400	4.12293	0.0000000
8500	4.11928	0.0000000
8600	4.09415	0.0000000
8700	4.1063	0.0000000
8800	4.11522	0.0000000
8900	4.10063	0.0000000
9000	4.10346	0.0000000
9100	4.10184	0.0000000
9200	4.09779	0.0000000
9300	4.09698	0.0000000
9400	4.09334	0.0000000
9500	4.09698	0.0000000
9600	4.09941	0.0000000
9700	4.09658	0.0000000
9800	4.08768	0.0000000
9900	4.09779	0.0000000
10000	4.07636	0.0000000